# quantum yield phi for NO3 -> NO2 + O
# JPL (2006) at 298 K
# lambda       phi
#   [nm]       [1]
100. 1.0000
584. 1.0000
585. 0.9830
586. 0.9670
587. 0.9430
588. 0.8850
589. 0.8540
590. 0.7930
591. 0.7630
592. 0.7340
593. 0.6800
594. 0.6540
595. 0.6080
596. 0.5870
597. 0.5670
598. 0.5310
599. 0.5090
600. 0.4720
601. 0.4380
602. 0.4150
603. 0.3710
604. 0.3510
605. 0.3230
606. 0.2960
607. 0.2800
608. 0.2590
609. 0.2380
610. 0.2260
611. 0.2100
612. 0.1930
613. 0.1810
614. 0.1660
615. 0.1470
616. 0.1370
617. 0.1240
618. 0.1080
619. 0.0993
620. 0.0897
621. 0.0769
622. 0.0704
623. 0.0643
624. 0.0552
625. 0.0487
626. 0.0442
627. 0.0393
628. 0.0339
629. 0.0294
630. 0.0264
631. 0.0236
632. 0.0195
633. 0.0177
634. 0.0161
635. 0.0146
636. 0.0119
637. 0.0107
638. 0.00957
639. 0.00856
640. 0.00715
641. 0.0000
850. 0.0000
